# d/mm, TEM00 I/µA, TEM01 I/µA
-20 0.015   0.03
-18 0.021   0.03
-16 0.025   0.01
-14 0.034   0.01
-12 0.062   0.04
-10 0.28    0.12
 -9 0.43    0.20
 -8 0.74    0.31
 -7 1.11    0.42
 -6 1.53    0.55
 -5 2.08    0.69
 -4 2.8     0.73
 -3 3.3     0.70
 -2 3.7     0.58
 -1 3.6     0.40
  0 3.6     0.25
  1 2.9     0.10
  2 2.4     0.02
  3 1.5     0.05
  4 0.96    0.17
  5 0.36    0.31
  6 0.20    0.42
  7 0.14    0.53
  8 0.10    0.54
  9 0.068   0.56
 10 0.047   0.50
 12 0.018   0.35
 14 0.009   0.17
 16 0.006   0.09
 18 0.005   0.03
 20 0.004   0.02